# XDI/1.0 Athena/0.9.26
# Element.edge:                  K
# Element.symbol:                Mn
# Column.1:                      energy eV
# Column.2:                      norm
# Column.3:                      nbkg
# Column.4:                      flat
# Column.5:                      fbkg
# Column.6:                      nder
# Column.7:                      nsec
# Athena.e0:                     6553.783629
# Athena.eshift:                 0
# Athena.rbkg:                   1.0
# Athena.importance:             1
# Athena.standard:               None
# Athena.bkg_kweight:            2
# Athena.edge_step:              0.3749037
# Athena.fixed_step:             no
# Athena.pre_edge_range:         -150.000 -30.000
# Athena.pre_edge_line:          -0.397705 + 8.43239e-005 * E
# Athena.normalization_range:    150.000 1390.562
# Athena.post_edge_polynomial:   1.478770 - 0.000351385 * E + 3.15228931e-008 * E^2 + 0 * E^3
# Athena.spline_range_energy:    0.000 1490.499
# Athena.clamps:                 0 24
# Athena.spline_range_k:         0.000 19.779
# Athena.kweight:                2
# Athena.window:                 hanning
# Athena.phase_correction:       no
# Athena.k_range:                1 12
# Athena.dk:                     1
# Athena.r_range:                1 2
# Athena.dr:                     0.0
# Athena.window:                 hanning
# Athena.plot_multiplier:        1
# Athena.y_offset:               0
# ///
#------------------------
#   e         norm        nbkg        flat        fbkg        nder        nsec
  6213.4561       0.74625022E-02   0.74625021E-02   0.74625021E-02   0.74625021E-02   0.12071545E-04  -0.67834749E-05
  6219.2095       0.75319548E-02   0.75319546E-02   0.75319546E-02   0.75319546E-02  -0.26956554E-04  -0.52619491E-05
  6224.9751       0.71519902E-02   0.71519901E-02   0.71519900E-02   0.71519901E-02  -0.48540752E-04  -0.14515396E-07
  6230.7593       0.69713162E-02   0.69713161E-02   0.69713161E-02   0.69713161E-02  -0.27124205E-04   0.19881336E-05
  6236.4192       0.68415779E-02   0.68415777E-02   0.68415777E-02   0.68415777E-02  -0.25788337E-04  -0.27731022E-07
  6242.1150       0.66784738E-02   0.66784737E-02   0.66784737E-02   0.66784737E-02  -0.27439107E-04  -0.57553387E-06
  6247.9869       0.65241704E-02   0.65241702E-02   0.65241702E-02   0.65241702E-02  -0.32445943E-04  -0.14610951E-05
  6253.8607       0.62973739E-02   0.62973738E-02   0.62973738E-02   0.62973738E-02  -0.44600676E-04  -0.16672831E-05
  6259.5858       0.60068526E-02   0.60068525E-02   0.60068524E-02   0.60068525E-02  -0.51784556E-04   0.36370874E-06
  6265.3509       0.57023556E-02   0.57023555E-02   0.57023555E-02   0.57023555E-02  -0.40421566E-04   0.22711539E-05
  6271.2881       0.55338243E-02   0.55338242E-02   0.55338242E-02   0.55338242E-02  -0.25206666E-04   0.18563967E-05
  6277.0638       0.54071122E-02   0.54071121E-02   0.54071121E-02   0.54071121E-02  -0.18677758E-04  -0.10686806E-05
  6282.8421       0.53180220E-02   0.53180219E-02   0.53180219E-02   0.53180219E-02  -0.37554173E-04  -0.47409072E-05
  6288.7995       0.49663903E-02   0.49663902E-02   0.49663902E-02   0.49663902E-02  -0.74315301E-04  -0.68587081E-06
  6294.7678       0.44317593E-02   0.44317592E-02   0.44317592E-02   0.44317592E-02  -0.45733669E-04   0.51285013E-05
  6300.5787       0.44276837E-02   0.44276837E-02   0.44276836E-02   0.44276837E-02  -0.13905602E-04   0.10548232E-05
  6306.3796       0.42702901E-02   0.42702900E-02   0.42702900E-02   0.42702900E-02  -0.33485267E-04  -0.54836200E-05
  6312.3714       0.40328021E-02   0.40328020E-02   0.40328020E-02   0.40328020E-02  -0.78572282E-04  -0.61251867E-05
  6318.3720       0.33280240E-02   0.33280240E-02   0.33280240E-02   0.33280240E-02  -0.10694063E-03   0.45976416E-05
  6324.3719       0.27494533E-02   0.27494533E-02   0.27494533E-02   0.27494533E-02  -0.23397953E-04   0.12505157E-04
  6330.2072       0.30511033E-02   0.30511032E-02   0.30511032E-02   0.30511032E-02   0.41061101E-04   0.32249830E-06
  6336.0569       0.32292488E-02   0.32292487E-02   0.32292487E-02   0.32292487E-02  -0.19629587E-04  -0.71214542E-05
  6342.1056       0.28175429E-02   0.28175429E-02   0.28175429E-02   0.28175429E-02  -0.43672695E-04  -0.15206025E-05
  6348.1765       0.26999511E-02   0.26999511E-02   0.26999511E-02   0.26999511E-02  -0.38058753E-04  -0.50793457E-06
  6354.0752       0.23619959E-02   0.23619959E-02   0.23619958E-02   0.23619959E-02  -0.49752455E-04   0.22496362E-05
  6359.9742       0.21129866E-02   0.21129866E-02   0.21129866E-02   0.21129866E-02  -0.11518223E-04   0.20338840E-05
  6366.0657       0.22238862E-02   0.22238862E-02   0.22238862E-02   0.22238862E-02  -0.25365096E-04  -0.11060634E-05
  6372.1707       0.18036219E-02   0.18036218E-02   0.18036218E-02   0.18036218E-02  -0.25008298E-04   0.23771708E-05
  6378.1219       0.19223812E-02   0.19223811E-02   0.19223811E-02   0.19223811E-02   0.32945533E-05  -0.13093151E-06
  6384.0560       0.18427786E-02   0.18427785E-02   0.18427785E-02   0.18427785E-02  -0.26564456E-04  -0.33440276E-05
  6390.1792       0.16020850E-02   0.16020850E-02   0.16020849E-02   0.16020850E-02  -0.37025460E-04  -0.33109538E-06
  6396.3252       0.13885040E-02   0.13885040E-02   0.13885040E-02   0.13885040E-02  -0.30626748E-04   0.54099203E-07
  6402.4844       0.12252180E-02   0.12252180E-02   0.12252180E-02   0.12252180E-02  -0.36359761E-04  -0.97958051E-06
  6408.4683       0.94698288E-03   0.94698288E-03   0.94698286E-03   0.94698288E-03  -0.42521916E-04   0.11131786E-06
  6414.4709       0.71552723E-03   0.71552724E-03   0.71552722E-03   0.71552724E-03  -0.35025445E-04   0.20430234E-05
  6420.6720       0.51954415E-03   0.51954416E-03   0.51954414E-03   0.51954416E-03  -0.17589547E-04   0.68744995E-06
  6426.8980       0.49694062E-03   0.49694063E-03   0.49694061E-03   0.49694063E-03  -0.26482453E-04  -0.63498889E-06
  6432.9589       0.19415754E-03   0.19415756E-03   0.19415753E-03   0.19415756E-03  -0.25391576E-04   0.20025189E-05
  6439.0277       0.18894880E-03   0.18894882E-03   0.18894879E-03   0.18894882E-03  -0.21925291E-05  -0.80247395E-06
  6445.3155       0.16706528E-03   0.16706530E-03   0.16706527E-03   0.16706530E-03  -0.35307447E-04  -0.43828814E-05
  6451.6271      -0.25590403E-03  -0.25590400E-03  -0.25590402E-03  -0.25590400E-03  -0.57414227E-04   0.97004833E-06
  6457.7758      -0.54833540E-03  -0.54833536E-03  -0.54833539E-03  -0.54833536E-03  -0.23220317E-04   0.53532776E-05
  6463.9452      -0.54193486E-03  -0.54193482E-03  -0.54193485E-03  -0.54193482E-03   0.85281314E-05   0.10290815E-05
  6470.0998      -0.44323510E-03  -0.44323506E-03  -0.44323509E-03  -0.44323506E-03  -0.10537964E-04  -0.24700269E-05
  6476.2716      -0.67182967E-03  -0.67182963E-03  -0.67182965E-03  -0.67182963E-03  -0.21918326E-04   0.12161796E-05
  6482.6317      -0.71791280E-03  -0.71791276E-03  -0.71791279E-03  -0.71791276E-03   0.47030457E-05   0.17344005E-05
  6488.8072      -0.61287401E-03  -0.61287397E-03  -0.61287399E-03  -0.61287397E-03  -0.17651630E-06  -0.85667315E-06
  6495.0038      -0.72009668E-03  -0.72009664E-03  -0.72009667E-03  -0.72009664E-03  -0.58958224E-05  -0.10854025E-05
  6499.9840      -0.67877023E-03  -0.67877019E-03  -0.67877022E-03  -0.67877019E-03  -0.12307804E-04  -0.39593055E-05
  6501.8179      -0.80396403E-03  -0.80396399E-03  -0.80396402E-03  -0.80396399E-03  -0.32875164E-04   0.53924547E-03
  6502.0082      -0.74531479E-03  -0.74531475E-03  -0.74531477E-03  -0.74531475E-03   0.10792108E-02   0.12354662E-02
  6502.3673      -0.21112119E-03  -0.21112116E-03  -0.21112118E-03  -0.21112116E-03   0.64580350E-03  -0.17794955E-02
  6502.8634      -0.19302299E-03  -0.19302296E-03  -0.19302299E-03  -0.19302296E-03  -0.44261555E-03  -0.13652194E-02
  6503.3240      -0.63455865E-03  -0.63455861E-03  -0.63455864E-03  -0.63455861E-03  -0.66026229E-03   0.39131309E-03
  6503.6405      -0.70616234E-03  -0.70616230E-03  -0.70616232E-03  -0.70616230E-03  -0.13849680E-03   0.14021676E-02
  6503.9963      -0.72767517E-03  -0.72767513E-03  -0.72767516E-03  -0.72767513E-03   0.28246686E-03   0.95426940E-03
  6504.3912      -0.49411899E-03  -0.49411895E-03  -0.49411898E-03  -0.49411895E-03   0.57785797E-03  -0.44436735E-03
  6504.7862      -0.27121649E-03  -0.27121646E-03  -0.27121649E-03  -0.27121646E-03  -0.68545582E-04  -0.13716195E-02
  6505.1812      -0.54827109E-03  -0.54827106E-03  -0.54827108E-03  -0.54827106E-03  -0.50574338E-03  -0.35819044E-04
  6505.3717      -0.56730395E-03  -0.56730392E-03  -0.56730394E-03  -0.56730392E-03  -0.89515841E-04   0.37703665E-02
  6505.5621      -0.58236284E-03  -0.58236281E-03  -0.58236283E-03  -0.58236281E-03   0.93018563E-03   0.40166345E-03
  6505.9216      -0.55738135E-04  -0.55738109E-04  -0.55738134E-04  -0.55738109E-04   0.13138339E-03  -0.20191420E-02
  6506.4165      -0.47010848E-03  -0.47010844E-03  -0.47010847E-03  -0.47010844E-03  -0.79497539E-03  -0.67728177E-03
  6506.8758      -0.81431160E-03  -0.81431156E-03  -0.81431158E-03  -0.81431156E-03  -0.51488564E-03   0.42096110E-04
  6507.1963      -0.87164153E-03  -0.87164149E-03  -0.87164151E-03  -0.87164149E-03  -0.76214678E-03   0.13424412E-02
  6507.5525      -0.13300335E-02  -0.13300334E-02  -0.13300334E-02  -0.13300334E-02   0.39350407E-03   0.22023640E-02
  6507.9479      -0.57590473E-03  -0.57590470E-03  -0.57590472E-03  -0.57590470E-03   0.89303326E-03  -0.20379106E-03
  6508.3469      -0.62062035E-03  -0.62062031E-03  -0.62062033E-03  -0.62062031E-03   0.23161530E-03  -0.85870094E-03
  6508.7424      -0.39188939E-03  -0.39188936E-03  -0.39188938E-03  -0.39188936E-03   0.21080652E-03  -0.13303470E-02
  6508.9330      -0.49706158E-03  -0.49706155E-03  -0.49706157E-03  -0.49706155E-03  -0.54813300E-03  -0.88695589E-03
  6509.1237      -0.60088373E-03  -0.60088370E-03  -0.60088372E-03  -0.60088370E-03  -0.12737557E-03   0.12417514E-02
  6509.4836      -0.56719381E-03  -0.56719377E-03  -0.56719379E-03  -0.56719377E-03   0.13556788E-03   0.24602736E-03
  6509.9808      -0.48467915E-03  -0.48467911E-03  -0.48467914E-03  -0.48467911E-03   0.83511457E-04  -0.41125437E-03
  6510.4460      -0.48681912E-03  -0.48681909E-03  -0.48681911E-03  -0.48681909E-03  -0.26023936E-03  -0.32831390E-03
  6510.7669      -0.68925201E-03  -0.68925197E-03  -0.68925200E-03  -0.68925197E-03  -0.17457446E-03   0.13915180E-02
  6511.1235      -0.60508476E-03  -0.60508473E-03  -0.60508475E-03  -0.60508473E-03   0.68244591E-03   0.43412344E-03
  6511.5229      -0.17333587E-03  -0.17333584E-03  -0.17333586E-03  -0.17333584E-03   0.15361461E-03  -0.12915852E-02
  6511.9188      -0.48291476E-03  -0.48291472E-03  -0.48291474E-03  -0.48291472E-03  -0.34475441E-03   0.28807384E-03
  6512.1168      -0.37807138E-03  -0.37807135E-03  -0.37807137E-03  -0.37807135E-03   0.32468986E-03   0.54267081E-03
  6512.3147      -0.35435575E-03  -0.35435572E-03  -0.35435575E-03  -0.35435572E-03  -0.12988717E-03   0.41996265E-03
  6512.6965      -0.45336723E-03  -0.45336719E-03  -0.45336722E-03  -0.45336719E-03   0.56814304E-03   0.46848850E-03
  6513.0568       0.67255246E-04   0.67255269E-04   0.67255244E-04   0.67255269E-04   0.21777159E-03  -0.72973946E-03
  6513.5510      -0.26726181E-03  -0.26726178E-03  -0.26726180E-03  -0.26726178E-03  -0.55484998E-04  -0.35862643E-03
  6514.0132       0.14188783E-04   0.14188807E-04   0.14188783E-04   0.14188807E-04  -0.12522267E-03  -0.36662147E-03
  6514.3345      -0.36536526E-03  -0.36536522E-03  -0.36536525E-03  -0.36536522E-03  -0.34270799E-03   0.66357627E-03
  6514.6879      -0.21702293E-03  -0.21702290E-03  -0.21702293E-03  -0.21702290E-03   0.32246636E-03   0.11746102E-02
  6515.0878      -0.12245780E-03  -0.12245777E-03  -0.12245779E-03  -0.12245777E-03   0.54210242E-03  -0.70718994E-03
  6515.4841       0.21460823E-03   0.21460825E-03   0.21460822E-03   0.21460825E-03  -0.24061029E-03  -0.12258425E-02
  6515.8805      -0.31320136E-03  -0.31320133E-03  -0.31320136E-03  -0.31320133E-03  -0.42968302E-03   0.26613749E-02
  6516.0716      -0.37820234E-04  -0.37820209E-04  -0.37820233E-04  -0.37820209E-04   0.13228836E-02  -0.38730733E-04
  6516.2627       0.19235579E-03   0.19235581E-03   0.19235579E-03   0.19235581E-03  -0.44448447E-03  -0.26290698E-02
  6516.6234      -0.28311521E-03  -0.28311518E-03  -0.28311521E-03  -0.28311518E-03  -0.12800541E-03   0.12779757E-02
  6517.1218       0.82380455E-04   0.82380478E-04   0.82380453E-04   0.82380478E-04   0.65348322E-03   0.89474164E-03
  6517.5845       0.34493771E-03   0.34493773E-03   0.34493771E-03   0.34493773E-03   0.73191736E-03  -0.23660454E-03
  6517.9026       0.65383299E-03   0.65383300E-03   0.65383297E-03   0.65383300E-03   0.46875163E-03  -0.16691183E-02
  6518.2600       0.66155084E-03   0.66155085E-03   0.66155083E-03   0.66155085E-03  -0.39547023E-03  -0.41736156E-03
  6518.6567       0.35558951E-03   0.35558953E-03   0.35558950E-03   0.35558953E-03   0.15399882E-03   0.10996544E-02
  6519.0535       0.78375815E-03   0.78375816E-03   0.78375813E-03   0.78375816E-03   0.47717155E-03   0.18682589E-03
  6519.4540       0.73600832E-03   0.73600833E-03   0.73600831E-03   0.73600833E-03   0.30294333E-03   0.79660158E-03
  6519.6453       0.96301820E-03   0.96301821E-03   0.96301818E-03   0.96301821E-03   0.94854301E-03  -0.33562127E-02
  6519.8366       0.10989247E-02   0.10989247E-02   0.10989246E-02   0.10989247E-02  -0.98115708E-03  -0.20350513E-02
  6520.2013       0.41741932E-03   0.41741933E-03   0.41741931E-03   0.41741933E-03  -0.18310224E-03   0.17364742E-02
  6520.6985       0.94110427E-03   0.94110428E-03   0.94110425E-03   0.94110428E-03   0.51555345E-03   0.32139114E-03
  6521.1635       0.91348176E-03   0.91348176E-03   0.91348174E-03   0.91348176E-03   0.12613839E-03   0.19447236E-03
  6521.4855       0.10403787E-02   0.10403787E-02   0.10403787E-02   0.10403787E-02   0.66860864E-03   0.33701141E-03
  6521.8398       0.13656070E-02   0.13656070E-02   0.13656069E-02   0.13656070E-02   0.35403157E-03  -0.85482309E-03
  6522.2405       0.13076796E-02   0.13076796E-02   0.13076796E-02   0.13076796E-02   0.23200118E-04  -0.21826347E-03
  6522.6342       0.13840389E-02   0.13840389E-02   0.13840389E-02   0.13840389E-02   0.18062626E-03   0.18841039E-03
  6523.0315       0.14505548E-02   0.14505548E-02   0.14505548E-02   0.14505548E-02   0.17223254E-03   0.83818228E-04
  6523.2248       0.14857631E-02   0.14857631E-02   0.14857630E-02   0.14857631E-02   0.23013106E-03   0.63999174E-03
  6523.4182       0.15395292E-02   0.15395292E-02   0.15395292E-02   0.15395292E-02   0.41966935E-03  -0.12963032E-03
  6523.7762       0.17171465E-02   0.17171465E-02   0.17171465E-02   0.17171465E-02   0.15865978E-03  -0.66211893E-03
  6524.2757       0.16755878E-02   0.16755878E-02   0.16755877E-02   0.16755878E-02  -0.14813007E-03  -0.22412076E-04
  6524.7359       0.15749828E-02   0.15749828E-02   0.15749828E-02   0.15749828E-02   0.13715041E-03   0.64284605E-03
  6525.0547       0.17824253E-02   0.17824253E-02   0.17824253E-02   0.17824253E-02   0.35263479E-03  -0.38133356E-03
  6525.4129       0.18137155E-02   0.18137155E-02   0.18137155E-02   0.18137155E-02  -0.12101126E-03  -0.30731368E-03
  6525.8106       0.16909544E-02   0.16909544E-02   0.16909543E-02   0.16909544E-02   0.12034006E-03   0.68265048E-03
  6526.2083       0.19094329E-02   0.19094329E-02   0.19094329E-02   0.19094329E-02   0.42196279E-03   0.54461644E-03
  6526.6097       0.20281351E-02   0.20281351E-02   0.20281351E-02   0.20281351E-02   0.55553053E-03   0.93135942E-03
  6526.7996       0.22379187E-02   0.22379187E-02   0.22379186E-02   0.22379187E-02   0.97267655E-03  -0.57405767E-03
  6526.9896       0.23976569E-02   0.23976569E-02   0.23976569E-02   0.23976569E-02   0.33744487E-03  -0.97819606E-03
  6527.3516       0.24241825E-02   0.24241825E-02   0.24241825E-02   0.24241825E-02   0.43272895E-03   0.33563401E-03
  6527.8517       0.27707216E-02   0.27707216E-02   0.27707216E-02   0.27707216E-02   0.62680200E-03  -0.19467243E-03
  6528.3196       0.30309262E-02   0.30309262E-02   0.30309262E-02   0.30309262E-02   0.24428624E-03   0.42526801E-03
  6528.6387       0.29629874E-02   0.29629873E-02   0.29629873E-02   0.29629873E-02   0.96150961E-03  -0.82923170E-03
  6528.9938       0.36791683E-02   0.36791683E-02   0.36791682E-02   0.36791683E-02  -0.31477514E-03  -0.18724678E-02
  6529.3955       0.27247778E-02   0.27247778E-02   0.27247777E-02   0.27247778E-02  -0.45550102E-03   0.18783128E-02
  6529.7937       0.33148149E-02   0.33148148E-02   0.33148148E-02   0.33148148E-02   0.11876798E-02   0.13948666E-02
  6530.1919       0.36706590E-02   0.36706590E-02   0.36706590E-02   0.36706590E-02   0.65538612E-03  -0.15005005E-02
  6530.3857       0.37027930E-02   0.37027929E-02   0.37027929E-02   0.37027929E-02   0.29940748E-03   0.17756164E-02
  6530.5794       0.37866848E-02   0.37866848E-02   0.37866847E-02   0.37866848E-02   0.13434694E-02   0.35725753E-03
  6530.9455       0.44548645E-02   0.44548644E-02   0.44548644E-02   0.44548644E-02   0.49939953E-03  -0.12190644E-02
  6531.4425       0.42177250E-02   0.42177250E-02   0.42177250E-02   0.42177250E-02   0.29127424E-03   0.93335732E-03
  6531.9074       0.47350525E-02   0.47350524E-02   0.47350524E-02   0.47350524E-02   0.13972323E-02   0.13299527E-02
  6532.2269       0.53136722E-02   0.53136721E-02   0.53136721E-02   0.53136721E-02   0.13344492E-02  -0.21174476E-03
  6532.5860       0.56405577E-02   0.56405576E-02   0.56405576E-02   0.56405576E-02   0.12535506E-02  -0.49190788E-03
  6532.9845       0.62634060E-02   0.62634059E-02   0.62634059E-02   0.62634059E-02   0.96176261E-03  -0.57857970E-03
  6533.3832       0.64073028E-02   0.64073027E-02   0.64073026E-02   0.64073027E-02   0.79229008E-03   0.31677337E-03
  6533.7819       0.68951242E-02   0.68951241E-02   0.68951241E-02   0.68951241E-02   0.12143362E-02   0.64372281E-03
  6533.9723       0.71226390E-02   0.71226389E-02   0.71226389E-02   0.71226389E-02   0.11714917E-02   0.39333697E-02
  6534.1627       0.73412048E-02   0.73412047E-02   0.73412047E-02   0.73412047E-02   0.27120847E-02   0.34598704E-02
  6534.5255       0.86231216E-02   0.86231214E-02   0.86231214E-02   0.86231214E-02   0.30856927E-02   0.16224535E-02
  6535.0268       0.10007589E-01   0.10007589E-01   0.10007589E-01   0.10007589E-01   0.41140662E-02   0.38384241E-02
  6535.4922       0.12599947E-01   0.12599946E-01   0.12599946E-01   0.12599946E-01   0.67960709E-02   0.87422901E-02
  6535.8120       0.15344374E-01   0.15344373E-01   0.15344373E-01   0.15344373E-01   0.10979168E-01   0.10869045E-01
  6536.1679       0.20019109E-01   0.20019108E-01   0.20019108E-01   0.20019108E-01   0.14140817E-01   0.94827137E-02
  6536.5670       0.26019475E-01   0.26019474E-01   0.26019474E-01   0.26019474E-01   0.18137801E-01   0.11377939E-01
  6536.9661       0.34495758E-01   0.34495758E-01   0.34495758E-01   0.34495758E-01   0.23222097E-01   0.86825279E-02
  6537.3652       0.44556513E-01   0.44556512E-01   0.44556512E-01   0.44556512E-01   0.25068629E-01   0.24853826E-02
  6537.5576       0.49325181E-01   0.49325180E-01   0.49325180E-01   0.49325180E-01   0.24692332E-01  -0.16593633E-01
  6537.7500       0.54058518E-01   0.54058517E-01   0.54058517E-01   0.54058517E-01   0.18683134E-01  -0.15183488E-01
  6538.2860       0.62933191E-01   0.62933190E-01   0.62933190E-01   0.62933190E-01   0.13633317E-01  -0.74675523E-02
  6538.7716       0.67986451E-01   0.67986450E-01   0.67986450E-01   0.67986450E-01   0.11054208E-01  -0.10123617E-02
  6539.0811       0.71722314E-01   0.71722313E-01   0.71722313E-01   0.71722313E-01   0.12828396E-01   0.78133051E-04
  6539.4013       0.76064235E-01   0.76064234E-01   0.76064234E-01   0.76064234E-01   0.11103406E-01  -0.13432728E-01
  6539.7576       0.79234091E-01   0.79234089E-01   0.79234089E-01   0.79234089E-01   0.37407656E-02  -0.20306973E-01
