# XDI/1.0 Athena/0.9.26
# Element.edge:                  K
# Element.symbol:                Mn
# Column.1:                      energy eV
# Column.2:                      norm
# Column.3:                      nbkg
# Column.4:                      flat
# Column.5:                      fbkg
# Column.6:                      nder
# Column.7:                      nsec
# Athena.e0:                     6553.783629
# Athena.eshift:                 0
# Athena.rbkg:                   1.0
# Athena.importance:             1
# Athena.standard:               None
# Athena.bkg_kweight:            2
# Athena.edge_step:              0.3695525
# Athena.fixed_step:             no
# Athena.pre_edge_range:         -150.000 -30.000
# Athena.pre_edge_line:          -0.371072 + 8.17752e-005 * E
# Athena.normalization_range:    150.000 1390.562
# Athena.post_edge_polynomial:   1.513267 - 0.000358575 * E + 3.19233114e-008 * E^2 + 0 * E^3
# Athena.spline_range_energy:    0.000 1490.499
# Athena.clamps:                 0 24
# Athena.spline_range_k:         0.000 19.779
# Athena.kweight:                2
# Athena.window:                 hanning
# Athena.phase_correction:       no
# Athena.k_range:                1 12
# Athena.dk:                     1
# Athena.r_range:                1 2
# Athena.dr:                     0.0
# Athena.window:                 hanning
# Athena.plot_multiplier:        1
# Athena.y_offset:               0
# ///
#------------------------
#   e         norm        nbkg        flat        fbkg        nder        nsec
  6213.3900       0.52922140E-02   0.52922145E-02   0.52922144E-02   0.52922145E-02  -0.23949572E-04   0.17050953E-05
  6219.1433       0.51544254E-02   0.51544259E-02   0.51544258E-02   0.51544259E-02  -0.14139682E-04   0.40010906E-06
  6224.9062       0.51293786E-02   0.51293790E-02   0.51293790E-02   0.51293790E-02  -0.19341835E-04  -0.23943610E-05
  6230.6907       0.49310770E-02   0.49310774E-02   0.49310774E-02   0.49310774E-02  -0.41788391E-04  -0.95466431E-06
  6236.5174       0.46441682E-02   0.46441686E-02   0.46441685E-02   0.46441686E-02  -0.30426566E-04   0.32129464E-05
  6242.3711       0.45756839E-02   0.45756843E-02   0.45756842E-02   0.45756843E-02  -0.42600300E-05   0.24962782E-05
  6248.0860       0.45948852E-02   0.45948856E-02   0.45948856E-02   0.45948856E-02  -0.15478993E-05  -0.24387926E-05
  6253.7911       0.45580068E-02   0.45580072E-02   0.45580071E-02   0.45580072E-02  -0.32111147E-04  -0.32044548E-05
  6259.5186       0.42277736E-02   0.42277740E-02   0.42277740E-02   0.42277740E-02  -0.38182919E-04  -0.45563878E-08
  6265.2839       0.41191806E-02   0.41191810E-02   0.41191809E-02   0.41191810E-02  -0.32163512E-04   0.20529377E-05
  6271.2221       0.38513487E-02   0.38513491E-02   0.38513490E-02   0.38513491E-02  -0.14156411E-04   0.25600663E-05
  6277.1620       0.39510284E-02   0.39510288E-02   0.39510287E-02   0.39510288E-02  -0.17546165E-05   0.59846385E-06
  6282.9371       0.38307934E-02   0.38307937E-02   0.38307937E-02   0.38307937E-02  -0.71453899E-05  -0.22159389E-05
  6288.7330       0.38683495E-02   0.38683498E-02   0.38683498E-02   0.38683498E-02  -0.27395133E-04  -0.30111335E-05
  6294.7029       0.35084679E-02   0.35084682E-02   0.35084682E-02   0.35084682E-02  -0.42573761E-04   0.49287825E-06
  6300.6770       0.33598495E-02   0.33598498E-02   0.33598497E-02   0.33598498E-02  -0.21508207E-04   0.29097133E-05
  6306.4790       0.32551836E-02   0.32551839E-02   0.32551839E-02   0.32551839E-02  -0.83084816E-05  -0.69331499E-06
  6312.3060       0.32632295E-02   0.32632298E-02   0.32632298E-02   0.32632298E-02  -0.29570821E-04  -0.22407970E-05
  6318.3089       0.29053642E-02   0.29053645E-02   0.29053644E-02   0.29053645E-02  -0.34816853E-04   0.13421055E-05
  6324.3069       0.28453970E-02   0.28453973E-02   0.28453972E-02   0.28453973E-02  -0.13464389E-04   0.12693955E-05
  6330.1436       0.27460180E-02   0.27460182E-02   0.27460182E-02   0.27460182E-02  -0.19794009E-04  -0.14560392E-05
  6335.9918       0.26141070E-02   0.26141073E-02   0.26141072E-02   0.26141073E-02  -0.30477986E-04  -0.11829903E-05
  6342.0419       0.23833815E-02   0.23833817E-02   0.23833817E-02   0.23833817E-02  -0.33869592E-04   0.10876205E-05
  6348.1119       0.22036030E-02   0.22036032E-02   0.22036031E-02   0.22036032E-02  -0.17295878E-04   0.56763979E-06
  6354.0074       0.21764267E-02   0.21764269E-02   0.21764269E-02   0.21764269E-02  -0.27077466E-04   0.17854014E-06
  6359.9076       0.18842040E-02   0.18842042E-02   0.18842042E-02   0.18842042E-02  -0.15189863E-04   0.11588298E-05
  6365.9998       0.19942646E-02   0.19942648E-02   0.19942648E-02   0.19942648E-02  -0.13180381E-04  -0.22140397E-05
  6372.1054       0.17234334E-02   0.17234336E-02   0.17234335E-02   0.17234336E-02  -0.42196101E-04  -0.11218943E-05
  6378.2187       0.14786722E-02   0.14786723E-02   0.14786723E-02   0.14786723E-02  -0.26888763E-04   0.23330037E-05
  6384.1503       0.13995597E-02   0.13995598E-02   0.13995598E-02   0.13995598E-02  -0.14095195E-04   0.83745034E-06
  6390.1031       0.13111603E-02   0.13111605E-02   0.13111604E-02   0.13111605E-02  -0.16936233E-04  -0.65516533E-06
  6396.2500       0.11946362E-02   0.11946363E-02   0.11946363E-02   0.11946363E-02  -0.22022506E-04  -0.13283249E-05
  6402.4073       0.10401893E-02   0.10401895E-02   0.10401894E-02   0.10401895E-02  -0.33280307E-04  -0.13660076E-05
  6408.5618       0.78489568E-03   0.78489579E-03   0.78489574E-03   0.78489579E-03  -0.38840519E-04   0.60625240E-06
  6414.5569       0.56829400E-03   0.56829410E-03   0.56829405E-03   0.56829410E-03  -0.25914605E-04   0.25639268E-05
  6420.5885       0.47322873E-03   0.47322882E-03   0.47322877E-03   0.47322882E-03  -0.80049634E-05   0.76785733E-06
  6426.8142       0.47017502E-03   0.47017511E-03   0.47017506E-03   0.47017511E-03  -0.16502772E-04  -0.12673844E-05
  6433.0466       0.26763644E-03   0.26763651E-03   0.26763646E-03   0.26763651E-03  -0.23794097E-04  -0.20180306E-06
  6439.1109       0.17758582E-03   0.17758588E-03   0.17758583E-03   0.17758588E-03  -0.18984287E-04  -0.22935710E-06
  6445.2242       0.36453294E-04   0.36453349E-04   0.36453296E-04   0.36453349E-04  -0.26587117E-04   0.10522559E-06
  6451.5321      -0.15265813E-03  -0.15265809E-03  -0.15265814E-03  -0.15265809E-03  -0.17677258E-04  -0.33764061E-06
  6457.8470      -0.18668340E-03  -0.18668336E-03  -0.18668341E-03  -0.18668336E-03  -0.30849091E-04  -0.86413912E-06
  6463.9858      -0.53684262E-03  -0.53684261E-03  -0.53684266E-03  -0.53684261E-03  -0.28438964E-04   0.16835032E-05
  6470.1409      -0.53630864E-03  -0.53630863E-03  -0.53630868E-03  -0.53630863E-03  -0.10152302E-04   0.15871252E-05
  6476.4896      -0.66378568E-03  -0.66378567E-03  -0.66378573E-03  -0.66378567E-03  -0.85937582E-05   0.98081528E-06
  6482.6838      -0.64410004E-03  -0.64410004E-03  -0.64410009E-03  -0.64410004E-03   0.21500521E-05   0.86148487E-07
  6488.8609      -0.63718681E-03  -0.63718680E-03  -0.63718685E-03  -0.63718680E-03  -0.75279922E-05  -0.23902567E-06
  6495.0549      -0.73722894E-03  -0.73722894E-03  -0.73722900E-03  -0.73722894E-03  -0.80693778E-06   0.43567449E-05
  6499.8618      -0.64606383E-03  -0.64606383E-03  -0.64606388E-03  -0.64606383E-03   0.40400040E-04  -0.85911083E-06
  6501.8837      -0.46134252E-03  -0.46134250E-03  -0.46134255E-03  -0.46134250E-03  -0.66736896E-05  -0.24783415E-04
  6502.2464      -0.66197795E-03  -0.66197795E-03  -0.66197800E-03  -0.66197795E-03  -0.18698641E-04  -0.45585595E-03
  6502.5949      -0.47463989E-03  -0.47463987E-03  -0.47463993E-03  -0.47463987E-03  -0.33085155E-03  -0.60901262E-03
  6502.9149      -0.88316743E-03  -0.88316744E-03  -0.88316750E-03  -0.88316744E-03  -0.42585159E-03   0.26502846E-04
  6503.2172      -0.73968225E-03  -0.73968226E-03  -0.73968231E-03  -0.73968226E-03  -0.31435665E-03   0.89516914E-03
  6503.5303      -0.10766011E-02  -0.10766012E-02  -0.10766012E-02  -0.10766012E-02   0.12497463E-03   0.77218760E-03
  6503.8682      -0.65832789E-03  -0.65832789E-03  -0.65832794E-03  -0.65832789E-03   0.18831200E-03   0.17352794E-03
  6504.2560      -0.93993352E-03  -0.93993354E-03  -0.93993359E-03  -0.93993354E-03   0.25091271E-03   0.29888668E-03
  6504.6545      -0.46102921E-03  -0.46102919E-03  -0.46102924E-03  -0.46102919E-03   0.42333377E-03  -0.89941892E-03
  6505.0496      -0.60400082E-03  -0.60400081E-03  -0.60400086E-03  -0.60400081E-03  -0.46281308E-03  -0.20480509E-03
  6505.4375      -0.82339565E-03  -0.82339566E-03  -0.82339571E-03  -0.82339566E-03   0.26297855E-03   0.13699409E-02
  6505.8006      -0.40649709E-03  -0.40649707E-03  -0.40649712E-03  -0.40649707E-03   0.56604816E-03  -0.38524932E-03
  6506.1495      -0.42039314E-03  -0.42039312E-03  -0.42039317E-03  -0.42039312E-03  -0.11302788E-04  -0.20433442E-02
  6506.4699      -0.41406221E-03  -0.41406219E-03  -0.41406224E-03  -0.41406219E-03  -0.80159072E-03   0.34644254E-03
  6506.7761      -0.92271637E-03  -0.92271639E-03  -0.92271645E-03  -0.92271639E-03   0.20579820E-03   0.17522812E-02
  6507.0895      -0.28654944E-03  -0.28654941E-03  -0.28654946E-03  -0.28654941E-03   0.28412448E-03  -0.34791371E-03
  6507.4278      -0.73754762E-03  -0.73754763E-03  -0.73754768E-03  -0.73754763E-03  -0.20943078E-04   0.62578739E-03
  6507.8161      -0.30176638E-03  -0.30176635E-03  -0.30176641E-03  -0.30176635E-03   0.73881283E-03  -0.69297794E-03
  6508.2151      -0.15593347E-03  -0.15593343E-03  -0.15593349E-03  -0.15593343E-03  -0.56647472E-03  -0.12648376E-02
  6508.6105      -0.75180392E-03  -0.75180393E-03  -0.75180398E-03  -0.75180393E-03  -0.26604120E-03   0.17363182E-02
  6509.0025      -0.36542203E-03  -0.36542201E-03  -0.36542206E-03  -0.36542201E-03   0.80075259E-03   0.50881486E-03
  6509.3696      -0.14401830E-03  -0.14401825E-03  -0.14401831E-03  -0.14401825E-03   0.12015844E-03  -0.57550346E-03
  6509.7188      -0.27934737E-03  -0.27934734E-03  -0.27934739E-03  -0.27934734E-03   0.38849471E-03  -0.89584856E-03
  6510.0396       0.11630696E-03   0.11630702E-03   0.11630697E-03   0.11630702E-03  -0.48013803E-03  -0.12634322E-02
  6510.3462      -0.58057685E-03  -0.58057684E-03  -0.58057690E-03  -0.58057684E-03  -0.40415867E-03   0.16527551E-02
  6510.6671      -0.13728079E-03  -0.13728074E-03  -0.13728080E-03  -0.13728074E-03   0.55687655E-03   0.52257807E-03
  6511.0201      -0.20531835E-03  -0.20531831E-03  -0.20531836E-03  -0.20531831E-03  -0.52012647E-04  -0.16451022E-03
  6511.4159      -0.17622905E-03  -0.17622901E-03  -0.17622907E-03  -0.17622901E-03   0.43368751E-03   0.49724686E-03
  6511.8189       0.14112945E-03   0.14112951E-03   0.14112946E-03   0.14112951E-03   0.34520903E-03  -0.10279543E-02
  6512.2149       0.99573978E-04   0.99574038E-04   0.99573985E-04   0.99574038E-04  -0.38759146E-03  -0.92475686E-03
  6512.6073      -0.16442672E-03  -0.16442668E-03  -0.16442674E-03  -0.16442668E-03  -0.38381934E-03   0.11215863E-02
  6512.9712      -0.19072164E-03  -0.19072160E-03  -0.19072165E-03  -0.19072160E-03   0.46070242E-03  -0.32003185E-03
  6513.3209       0.16433421E-03   0.16433428E-03   0.16433422E-03   0.16433428E-03  -0.61219663E-03  -0.16025727E-02
  6513.6385      -0.59923800E-03  -0.59923800E-03  -0.59923805E-03  -0.59923800E-03  -0.60868793E-03   0.33725301E-02
  6513.9454      -0.21581697E-03  -0.21581693E-03  -0.21581698E-03  -0.21581693E-03   0.14940900E-02   0.18723351E-02
  6514.2631       0.33397960E-03   0.33397968E-03   0.33397963E-03   0.33397968E-03   0.56078379E-03  -0.32139743E-02
  6514.6129       0.15850958E-03   0.15850964E-03   0.15850959E-03   0.15850964E-03  -0.65125711E-03  -0.33821248E-03
  6515.0092      -0.15193831E-03  -0.15193827E-03  -0.15193832E-03  -0.15193827E-03   0.30843568E-03   0.10006631E-02
  6515.4056       0.40298433E-03   0.40298441E-03   0.40298436E-03   0.40298441E-03   0.14189647E-03  -0.86362995E-03
  6515.8019      -0.39453003E-04  -0.39452953E-04  -0.39453006E-04  -0.39452953E-04  -0.37618797E-03   0.39575983E-03
  6516.1912       0.10741871E-03   0.10741877E-03   0.10741872E-03   0.10741877E-03   0.45283943E-03   0.81863100E-03
  6516.5520       0.30020646E-03   0.30020653E-03   0.30020648E-03   0.30020653E-03   0.23783931E-03  -0.14841277E-02
  6516.9021       0.27648940E-03   0.27648947E-03   0.27648942E-03   0.27648947E-03  -0.60216906E-03  -0.98255860E-03
  6517.2165      -0.99931871E-04  -0.99931825E-04  -0.99931878E-04  -0.99931825E-04  -0.41506596E-03   0.22744239E-02
  6517.5238       0.18446626E-04   0.18446680E-04   0.18446627E-04   0.18446680E-04   0.81181982E-03   0.16912970E-02
  6517.8383       0.40481954E-03   0.40481962E-03   0.40481957E-03   0.40481962E-03   0.63650301E-03  -0.27939243E-03
  6518.1849       0.43925723E-03   0.43925731E-03   0.43925726E-03   0.43925731E-03   0.62710538E-03  -0.37539944E-03
  6518.5781       0.86877342E-03   0.86877354E-03   0.86877349E-03   0.86877354E-03   0.35876975E-03  -0.14112001E-02
  6518.9785       0.72395573E-03   0.72395584E-03   0.72395578E-03   0.72395584E-03  -0.49273972E-03  -0.31323104E-03
  6519.3753       0.47595244E-03   0.47595253E-03   0.47595248E-03   0.47595253E-03   0.10905633E-03   0.69572658E-03
  6519.7615       0.80934858E-03   0.80934869E-03   0.80934864E-03   0.80934869E-03   0.52025317E-04   0.68826189E-04
  6520.1262       0.51501981E-03   0.51501991E-03   0.51501985E-03   0.51501991E-03   0.16073998E-03   0.11329149E-03
  6520.4767       0.92431897E-03   0.92431909E-03   0.92431904E-03   0.92431909E-03   0.13305785E-03  -0.82033655E-03
  6520.7915       0.60353801E-03   0.60353811E-03   0.60353806E-03   0.60353811E-03  -0.38499794E-03   0.60294959E-03
  6521.0991       0.68469356E-03   0.68469366E-03   0.68469361E-03   0.68469366E-03   0.50833789E-03   0.20513146E-02
  6521.4175       0.92178193E-03   0.92178206E-03   0.92178200E-03   0.92178206E-03   0.89922344E-03  -0.34555552E-03
  6521.7610       0.12798815E-02   0.12798816E-02   0.12798816E-02   0.12798816E-02   0.27961780E-03  -0.13085435E-02
  6522.1547       0.11278910E-02   0.11278912E-02   0.11278911E-02   0.11278912E-02  -0.65317080E-04  -0.71493413E-03
  6522.5555       0.12279898E-02   0.12279900E-02   0.12279899E-02   0.12279900E-02  -0.28836662E-03  -0.46312646E-04
  6522.9492       0.89876729E-03   0.89876742E-03   0.89876736E-03   0.89876742E-03  -0.10211512E-03   0.10150299E-02
  6523.3394       0.11479399E-02   0.11479400E-02   0.11479400E-02   0.11479400E-02   0.50733463E-03   0.72051386E-03
  6523.7010       0.12801789E-02   0.12801791E-02   0.12801790E-02   0.12801791E-02   0.43956360E-03   0.10301781E-03
  6524.0483       0.14595553E-02   0.14595555E-02   0.14595554E-02   0.14595555E-02   0.58036602E-03  -0.59631684E-03
  6524.3635       0.16646401E-02   0.16646403E-02   0.16646402E-02   0.16646403E-02   0.44535892E-04  -0.33936543E-03
  6524.6679       0.14871471E-02   0.14871473E-02   0.14871473E-02   0.14871473E-02   0.37011488E-03   0.14342747E-02
  6524.9831       0.18939651E-02   0.18939653E-02   0.18939652E-02   0.18939653E-02   0.93321968E-03  -0.57369997E-03
  6525.3269       0.21022052E-02   0.21022054E-02   0.21022053E-02   0.21022054E-02  -0.79941375E-05  -0.16396158E-02
  6525.7210       0.18880658E-02   0.18880660E-02   0.18880659E-02   0.18880660E-02  -0.27674627E-03   0.18708218E-03
  6526.1187       0.18830814E-02   0.18830816E-02   0.18830815E-02   0.18830816E-02   0.14013491E-03   0.96250532E-03
  6526.5165       0.19995390E-02   0.19995392E-02   0.19995392E-02   0.19995392E-02   0.48889880E-03  -0.38007054E-03
  6526.9071       0.22685311E-02   0.22685314E-02   0.22685313E-02   0.22685314E-02  -0.15951422E-03   0.15008776E-03
  6527.2691       0.18794792E-02   0.18794794E-02   0.18794794E-02   0.18794794E-02   0.60186371E-03   0.19860832E-02
  6527.6204       0.26978519E-02   0.26978522E-02   0.26978522E-02   0.26978522E-02   0.12571967E-02  -0.68738654E-03
  6527.9395       0.27222775E-02   0.27222777E-02   0.27222777E-02   0.27222777E-02   0.14105420E-03  -0.61373616E-03
  6528.2443       0.27858473E-02   0.27858476E-02   0.27858476E-02   0.27858476E-02   0.87432288E-03   0.97296953E-03
  6528.5598       0.32646366E-02   0.32646369E-02   0.32646368E-02   0.32646369E-02   0.74460569E-03  -0.80110833E-03
  6528.9041       0.32771605E-02   0.32771608E-02   0.32771608E-02   0.32771608E-02   0.34572757E-03  -0.10682493E-02
  6529.2986       0.35200625E-02   0.35200628E-02   0.35200628E-02   0.35200628E-02  -0.44624397E-04   0.50804483E-03
  6529.7004       0.32416267E-02   0.32416270E-02   0.32416270E-02   0.32416270E-02   0.75027656E-03   0.28874445E-03
  6530.0986       0.41202642E-02   0.41202646E-02   0.41202646E-02   0.41202646E-02   0.18636365E-03  -0.90392263E-03
  6530.4897       0.33887260E-02   0.33887263E-02   0.33887262E-02   0.33887263E-02   0.36798670E-04   0.19444484E-02
  6530.8557       0.41481251E-02   0.41481255E-02   0.41481255E-02   0.41481255E-02   0.16585386E-02   0.91633924E-03
  6531.2074       0.45791122E-02   0.45791126E-02   0.45791126E-02   0.45791126E-02   0.69448466E-03  -0.16843047E-02
  6531.5269       0.46142306E-02   0.46142310E-02   0.46142310E-02   0.46142310E-02   0.52811243E-03  -0.20603106E-03
  6531.8320       0.49089506E-02   0.49089511E-02   0.49089510E-02   0.49089511E-02   0.56580570E-03   0.19308023E-02
  6532.1479       0.49656157E-02   0.49656162E-02   0.49656161E-02   0.49656162E-02   0.17272082E-02   0.23192308E-02
  6532.4926       0.60499306E-02   0.60499311E-02   0.60499310E-02   0.60499311E-02   0.20978710E-02  -0.55715123E-03
  6532.8840       0.65097935E-02   0.65097941E-02   0.65097940E-02   0.65097941E-02   0.13171065E-02  -0.14779874E-02
  6533.2862       0.70952047E-02   0.70952053E-02   0.70952053E-02   0.70952053E-02   0.92491946E-03  -0.52407366E-03
  6533.6813       0.72472374E-02   0.72472380E-02   0.72472379E-02   0.72472380E-02   0.89925941E-03   0.87989761E-03
  6534.0728       0.78025909E-02   0.78025916E-02   0.78025915E-02   0.78025916E-02   0.16170751E-02   0.19481940E-02
  6534.4357       0.84671540E-02   0.84671547E-02   0.84671546E-02   0.84671547E-02   0.23689711E-02   0.27378185E-02
  6534.7878       0.94963247E-02   0.94963255E-02   0.94963255E-02   0.94963255E-02   0.35745222E-02   0.25588500E-02
  6535.1076       0.10868968E-01   0.10868969E-01   0.10868969E-01   0.10868969E-01   0.40883289E-02   0.45285150E-02
  6535.4131       0.12052679E-01   0.12052680E-01   0.12052680E-01   0.12052680E-01   0.64061166E-02   0.89338835E-02
  6535.7294       0.14851971E-01   0.14851973E-01   0.14851973E-01   0.14851973E-01   0.96429710E-02   0.90232880E-02
  6536.0744       0.18430087E-01   0.18430088E-01   0.18430088E-01   0.18430088E-01   0.12373695E-01   0.10002649E-01
  6536.4663       0.23970370E-01   0.23970372E-01   0.23970372E-01   0.23970372E-01   0.17014103E-01   0.12171421E-01
  6536.8690       0.31948268E-01   0.31948271E-01   0.31948271E-01   0.31948271E-01   0.22044230E-01   0.93820659E-02
  6537.2681       0.41645897E-01   0.41645900E-01   0.41645900E-01   0.41645900E-01   0.24536841E-01   0.23852275E-02
  6537.6601       0.51360222E-01   0.51360226E-01   0.51360226E-01   0.51360226E-01   0.23931267E-01  -0.83828652E-02
  6538.0270       0.59806474E-01   0.59806479E-01   0.59806479E-01   0.59806479E-01   0.18175386E-01  -0.17761214E-01
  6538.3795       0.64435394E-01   0.64435399E-01   0.64435399E-01   0.64435399E-01   0.11154045E-01  -0.10156134E-01
  6538.6997       0.67309823E-01   0.67309828E-01   0.67309828E-01   0.67309828E-01   0.11343334E-01   0.63591091E-02
  6539.0055       0.71536344E-01   0.71536350E-01   0.71536350E-01   0.71536350E-01   0.15134860E-01   0.43926942E-02
  6539.3221       0.76730804E-01   0.76730810E-01   0.76730810E-01   0.76730810E-01   0.14077650E-01  -0.13566909E-01
  6539.6640       0.80806745E-01   0.80806751E-01   0.80806751E-01   0.80806751E-01   0.62007927E-02  -0.23093464E-01
